Theta [deg.]  Phi   [deg.]  Abs(Gain)[dB    ]   Abs(Left )[dB    ]  Phase(Left )[deg.]  Abs(Right)[dB    ]  Phase(Right)[deg.]  Ax.Ratio[dB    ]    
------------------------------------------------------------------------------------------------------------------------------------------------------
   0.000           0.000           2.133e+001          1.832e+001             358.972          1.832e+001             178.972          4.000e+001     
   1.000           0.000           2.126e+001          1.825e+001             359.171          1.825e+001             179.171          4.000e+001     
   2.000           0.000           2.105e+001          1.804e+001             359.775          1.804e+001             179.775          4.000e+001     
   3.000           0.000           2.070e+001          1.769e+001               0.810          1.769e+001             180.810          4.000e+001     
   4.000           0.000           2.023e+001          1.722e+001               2.306          1.722e+001             182.306          4.000e+001     
   5.000           0.000           1.965e+001          1.664e+001               4.292          1.664e+001             184.292          4.000e+001     
   6.000           0.000           1.899e+001          1.598e+001               6.776          1.598e+001             186.776          4.000e+001     
   7.000           0.000           1.828e+001          1.526e+001               9.722          1.526e+001             189.722          4.000e+001     
   8.000           0.000           1.753e+001          1.452e+001              13.033          1.452e+001             193.033          4.000e+001     
   9.000           0.000           1.678e+001          1.377e+001              16.541          1.377e+001             196.541          4.000e+001     
  10.000           0.000           1.603e+001          1.302e+001              20.037          1.302e+001             200.037          4.000e+001     
  11.000           0.000           1.528e+001          1.227e+001              23.312          1.227e+001             203.312          4.000e+001     
  12.000           0.000           1.450e+001          1.149e+001              26.217          1.149e+001             206.218          4.000e+001     
  13.000           0.000           1.368e+001          1.067e+001              28.701          1.067e+001             208.701          4.000e+001     
  14.000           0.000           1.278e+001          9.768e+000              30.821          9.768e+000             210.821          4.000e+001     
  15.000           0.000           1.178e+001          8.773e+000              32.734          8.773e+000             212.734          4.000e+001     
  16.000           0.000           1.069e+001          7.681e+000              34.669          7.681e+000             214.670          4.000e+001     
  17.000           0.000           9.516e+000          6.506e+000              36.886          6.506e+000             216.886          4.000e+001     
  18.000           0.000           8.301e+000          5.291e+000              39.592          5.291e+000             219.592          4.000e+001     
  19.000           0.000           7.109e+000          4.098e+000              42.849          4.098e+000             222.849          4.000e+001     
  20.000           0.000           6.007e+000          2.997e+000              46.450          2.997e+000             226.450          4.000e+001     
  21.000           0.000           5.040e+000          2.030e+000              49.907          2.030e+000             229.907          4.000e+001     
  22.000           0.000           4.198e+000          1.188e+000              52.629          1.188e+000             232.628          4.000e+001     
  23.000           0.000           3.415e+000          4.050e-001              54.186          4.050e-001             234.186          4.000e+001     
  24.000           0.000           2.608e+000         -4.024e-001              54.481         -4.024e-001             234.481          4.000e+001     
  25.000           0.000           1.699e+000         -1.311e+000              53.734         -1.311e+000             233.734          4.000e+001     
  26.000           0.000           6.377e-001         -2.373e+000              52.387         -2.373e+000             232.387          4.000e+001     
  27.000           0.000          -5.892e-001         -3.599e+000              51.027         -3.599e+000             231.027          4.000e+001     
  28.000           0.000          -1.949e+000         -4.960e+000              50.295         -4.960e+000             230.295          4.000e+001     
  29.000           0.000          -3.342e+000         -6.352e+000              50.782         -6.352e+000             230.783          4.000e+001     
  30.000           0.000          -4.602e+000         -7.613e+000              52.591         -7.613e+000             232.591          4.000e+001     
  31.000           0.000          -5.561e+000         -8.572e+000              54.985         -8.572e+000             234.985          4.000e+001     
  32.000           0.000          -6.167e+000         -9.177e+000              56.496         -9.177e+000             236.496          4.000e+001     
  33.000           0.000          -6.538e+000         -9.548e+000              55.858         -9.548e+000             235.858          4.000e+001     
  34.000           0.000          -6.871e+000         -9.881e+000              52.702         -9.881e+000             232.702          4.000e+001     
  35.000           0.000          -7.328e+000         -1.034e+001              47.416         -1.034e+001             227.416          4.000e+001     
  36.000           0.000          -8.003e+000         -1.101e+001              40.705         -1.101e+001             220.705          4.000e+001     
  37.000           0.000          -8.945e+000         -1.196e+001              33.393         -1.196e+001             213.393          4.000e+001     
  38.000           0.000          -1.016e+001         -1.317e+001              26.373         -1.317e+001             206.373          4.000e+001     
  39.000           0.000          -1.158e+001         -1.459e+001              20.629         -1.459e+001             200.629          4.000e+001     
  40.000           0.000          -1.304e+001         -1.605e+001              17.096         -1.605e+001             197.096          4.000e+001     
  41.000           0.000          -1.426e+001         -1.727e+001              16.006         -1.727e+001             196.006          4.000e+001     
  42.000           0.000          -1.491e+001         -1.792e+001              15.733         -1.792e+001             195.733          4.000e+001     
  43.000           0.000          -1.497e+001         -1.798e+001              13.504         -1.798e+001             193.504          4.000e+001     
  44.000           0.000          -1.473e+001         -1.774e+001               7.583         -1.774e+001             187.583          4.000e+001     
  45.000           0.000          -1.448e+001         -1.749e+001             358.043         -1.749e+001             178.042          4.000e+001     
  46.000           0.000          -1.439e+001         -1.740e+001             345.752         -1.740e+001             165.752          4.000e+001     
  47.000           0.000          -1.456e+001         -1.757e+001             331.615         -1.757e+001             151.615          4.000e+001     
  48.000           0.000          -1.499e+001         -1.800e+001             316.371         -1.800e+001             136.371          4.000e+001     
  49.000           0.000          -1.571e+001         -1.872e+001             300.650         -1.872e+001             120.650          4.000e+001     
  50.000           0.000          -1.670e+001         -1.971e+001             284.974         -1.971e+001             104.974          4.000e+001     
  51.000           0.000          -1.794e+001         -2.095e+001             269.996         -2.095e+001              89.996          4.000e+001     
  52.000           0.000          -1.937e+001         -2.238e+001             256.448         -2.238e+001              76.448          4.000e+001     
  53.000           0.000          -2.084e+001         -2.385e+001             245.087         -2.385e+001              65.088          4.000e+001     
  54.000           0.000          -2.210e+001         -2.511e+001             236.202         -2.511e+001              56.203          4.000e+001     
  55.000           0.000          -2.284e+001         -2.585e+001             228.713         -2.585e+001              48.713          4.000e+001     
  56.000           0.000          -2.296e+001         -2.597e+001             220.167         -2.597e+001              40.167          4.000e+001     
  57.000           0.000          -2.265e+001         -2.566e+001             208.557         -2.566e+001              28.557          4.000e+001     
  58.000           0.000          -2.219e+001         -2.520e+001             193.513         -2.520e+001              13.513          4.000e+001     
  59.000           0.000          -2.181e+001         -2.482e+001             175.589         -2.482e+001             355.588          4.000e+001     
  60.000           0.000          -2.157e+001         -2.458e+001             155.586         -2.458e+001             335.586          4.000e+001     
  61.000           0.000          -2.153e+001         -2.454e+001             134.108         -2.454e+001             314.108          4.000e+001     
  62.000           0.000          -2.169e+001         -2.470e+001             111.540         -2.470e+001             291.540          4.000e+001     
  63.000           0.000          -2.207e+001         -2.508e+001              88.074         -2.508e+001             268.074          4.000e+001     
  64.000           0.000          -2.264e+001         -2.565e+001              63.780         -2.565e+001             243.781          4.000e+001     
  65.000           0.000          -2.336e+001         -2.637e+001              38.746         -2.637e+001             218.747          4.000e+001     
  66.000           0.000          -2.417e+001         -2.718e+001              13.249         -2.718e+001             193.250          4.000e+001     
  67.000           0.000          -2.504e+001         -2.805e+001             347.844         -2.805e+001             167.845          4.000e+001     
  68.000           0.000          -2.597e+001         -2.898e+001             323.207         -2.898e+001             143.208          4.000e+001     
  69.000           0.000          -2.704e+001         -3.005e+001             299.836         -3.005e+001             119.837          4.000e+001     
  70.000           0.000          -2.832e+001         -3.133e+001             277.692         -3.133e+001              97.692          4.000e+001     
  71.000           0.000          -2.980e+001         -3.281e+001             256.454         -3.281e+001              76.455          4.000e+001     
  72.000           0.000          -3.136e+001         -3.437e+001             235.588         -3.437e+001              55.589          4.000e+001     
  73.000           0.000          -3.274e+001         -3.575e+001             214.742         -3.575e+001              34.743          4.000e+001     
  74.000           0.000          -3.366e+001         -3.667e+001             194.103         -3.667e+001              14.104          4.000e+001     
  75.000           0.000          -3.398e+001         -3.699e+001             174.131         -3.699e+001             354.132          4.000e+001     
  76.000           0.000          -3.387e+001         -3.688e+001             154.705         -3.688e+001             334.704          4.000e+001     
  77.000           0.000          -3.360e+001         -3.661e+001             134.876         -3.661e+001             314.876          4.000e+001     
  78.000           0.000          -3.341e+001         -3.642e+001             113.431         -3.642e+001             293.431          4.000e+001     
  79.000           0.000          -3.336e+001         -3.637e+001              89.414         -3.637e+001             269.414          4.000e+001     
  80.000           0.000          -3.336e+001         -3.637e+001              62.497         -3.637e+001             242.496          4.000e+001     
  81.000           0.000          -3.330e+001         -3.631e+001              33.243         -3.631e+001             213.243          4.000e+001     
  82.000           0.000          -3.313e+001         -3.614e+001               2.820         -3.614e+001             182.820          4.000e+001     
  83.000           0.000          -3.292e+001         -3.593e+001             332.183         -3.593e+001             152.182          4.000e+001     
  84.000           0.000          -3.278e+001         -3.579e+001             301.573         -3.579e+001             121.572          4.000e+001     
  85.000           0.000          -3.279e+001         -3.580e+001             270.698         -3.580e+001              90.698          4.000e+001     
  86.000           0.000          -3.295e+001         -3.596e+001             239.020         -3.596e+001              59.020          4.000e+001     
  87.000           0.000          -3.321e+001         -3.622e+001             205.940         -3.622e+001              25.940          4.000e+001     
  88.000           0.000          -3.341e+001         -3.642e+001             171.243         -3.642e+001             351.243          4.000e+001     
  89.000           0.000          -3.339e+001         -3.640e+001             135.798         -3.640e+001             315.798          4.000e+001     
  90.000           0.000          -3.318e+001         -3.619e+001             101.287         -3.619e+001             281.287          4.000e+001     
  91.000           0.000          -3.302e+001         -3.603e+001              68.531         -3.603e+001             248.530          4.000e+001     
  92.000           0.000          -3.318e+001         -3.619e+001              36.552         -3.619e+001             216.552          4.000e+001     
  93.000           0.000          -3.368e+001         -3.669e+001               3.254         -3.669e+001             183.255          4.000e+001     
  94.000           0.000          -3.425e+001         -3.726e+001             327.032         -3.726e+001             147.032          4.000e+001     
  95.000           0.000          -3.448e+001         -3.749e+001             289.089         -3.749e+001             109.089          4.000e+001     
  96.000           0.000          -3.445e+001         -3.746e+001             252.646         -3.746e+001              72.646          4.000e+001     
  97.000           0.000          -3.471e+001         -3.772e+001             217.953         -3.772e+001              37.953          4.000e+001     
  98.000           0.000          -3.556e+001         -3.857e+001             180.744         -3.857e+001               0.744          4.000e+001     
  99.000           0.000          -3.626e+001         -3.927e+001             135.447         -3.927e+001             315.447          4.000e+001     
 100.000           0.000          -3.520e+001         -3.821e+001              87.563         -3.821e+001             267.563          4.000e+001     
 101.000           0.000          -3.316e+001         -3.617e+001              49.988         -3.617e+001             229.988          4.000e+001     
 102.000           0.000          -3.177e+001         -3.478e+001              21.414         -3.478e+001             201.414          4.000e+001     
 103.000           0.000          -3.158e+001         -3.459e+001             355.972         -3.459e+001             175.973          4.000e+001     
 104.000           0.000          -3.271e+001         -3.572e+001             328.072         -3.572e+001             148.073          4.000e+001     
 105.000           0.000          -3.479e+001         -3.780e+001             289.367         -3.780e+001             109.368          4.000e+001     
 106.000           0.000          -3.529e+001         -3.830e+001             235.073         -3.830e+001              55.074          4.000e+001     
 107.000           0.000          -3.289e+001         -3.590e+001             189.165         -3.590e+001               9.166          4.000e+001     
 108.000           0.000          -3.071e+001         -3.372e+001             158.527         -3.372e+001             338.528          4.000e+001     
 109.000           0.000          -2.977e+001         -3.278e+001             133.879         -3.278e+001             313.880          4.000e+001     
 110.000           0.000          -3.008e+001         -3.309e+001             109.419         -3.309e+001             289.420          4.000e+001     
 111.000           0.000          -3.144e+001         -3.445e+001              80.365         -3.445e+001             260.367          4.000e+001     
 112.000           0.000          -3.307e+001         -3.608e+001              41.363         -3.608e+001             221.365          4.000e+001     
 113.000           0.000          -3.317e+001         -3.618e+001             355.166         -3.618e+001             175.168          4.000e+001     
 114.000           0.000          -3.181e+001         -3.482e+001             316.547         -3.482e+001             136.548          4.000e+001     
 115.000           0.000          -3.074e+001         -3.375e+001             287.634         -3.376e+001             107.635          4.000e+001     
 116.000           0.000          -3.068e+001         -3.369e+001             263.200         -3.369e+001              83.202          4.000e+001     
 117.000           0.000          -3.172e+001         -3.473e+001             239.071         -3.473e+001              59.073          4.000e+001     
 118.000           0.000          -3.385e+001         -3.686e+001             211.195         -3.686e+001              31.198          4.000e+001     
 119.000           0.000          -3.656e+001         -3.957e+001             174.134         -3.957e+001             354.137          4.000e+001     
 120.000           0.000          -3.817e+001         -4.118e+001             127.521         -4.118e+001             307.523          4.000e+001     
 121.000           0.000          -3.818e+001         -4.119e+001              86.714         -4.119e+001             266.716          4.000e+001     
 122.000           0.000          -3.875e+001         -4.176e+001              57.958         -4.176e+001             237.961          4.000e+001     
 123.000           0.000          -4.171e+001         -4.472e+001              37.489         -4.472e+001             217.495          4.000e+001     
 124.000           0.000          -5.207e+001         -5.508e+001              33.100         -5.508e+001             213.114          4.000e+001     
 125.000           0.000          -4.599e+001         -4.900e+001             163.870         -4.900e+001             343.861          4.000e+001     
 126.000           0.000          -3.828e+001         -4.129e+001             152.518         -4.129e+001             332.516          4.000e+001     
 127.000           0.000          -3.491e+001         -3.792e+001             136.091         -3.792e+001             316.090          4.000e+001     
 128.000           0.000          -3.337e+001         -3.638e+001             117.659         -3.638e+001             297.660          4.000e+001     
 129.000           0.000          -3.294e+001         -3.595e+001              96.917         -3.596e+001             276.919          4.000e+001     
 130.000           0.000          -3.319e+001         -3.620e+001              73.357         -3.620e+001             253.359          4.000e+001     
 131.000           0.000          -3.370e+001         -3.671e+001              47.482         -3.671e+001             227.485          4.000e+001     
 132.000           0.000          -3.424e+001         -3.725e+001              21.898         -3.725e+001             201.901          4.000e+001     
 133.000           0.000          -3.503e+001         -3.804e+001               0.156         -3.804e+001             180.159          4.000e+001     
 134.000           0.000          -3.672e+001         -3.973e+001             345.528         -3.973e+001             165.529          4.000e+001     
 135.000           0.000          -4.015e+001         -4.316e+001             345.195         -4.316e+001             165.193          4.000e+001     
 136.000           0.000          -4.314e+001         -4.615e+001              25.702         -4.615e+001             205.690          4.000e+001     
 137.000           0.000          -3.801e+001         -4.102e+001              60.856         -4.102e+001             240.850          4.000e+001     
 138.000           0.000          -3.361e+001         -3.662e+001              63.541         -3.662e+001             243.538          4.000e+001     
 139.000           0.000          -3.109e+001         -3.410e+001              58.363         -3.410e+001             238.363          4.000e+001     
 140.000           0.000          -2.992e+001         -3.293e+001              51.103         -3.293e+001             231.104          4.000e+001     
 141.000           0.000          -2.988e+001         -3.289e+001              43.507         -3.289e+001             223.509          4.000e+001     
 142.000           0.000          -3.094e+001         -3.395e+001              36.461         -3.395e+001             216.464          4.000e+001     
 143.000           0.000          -3.331e+001         -3.632e+001              31.358         -3.632e+001             211.361          4.000e+001     
 144.000           0.000          -3.763e+001         -4.064e+001              32.885         -4.064e+001             212.885          4.000e+001     
 145.000           0.000          -4.400e+001         -4.701e+001              66.710         -4.701e+001             246.698          4.000e+001     
 146.000           0.000          -4.099e+001         -4.400e+001             123.823         -4.400e+001             303.823          4.000e+001     
 147.000           0.000          -3.671e+001         -3.972e+001             130.541         -3.972e+001             310.544          4.000e+001     
 148.000           0.000          -3.478e+001         -3.778e+001             123.349         -3.779e+001             303.351          4.000e+001     
 149.000           0.000          -3.432e+001         -3.733e+001             110.164         -3.734e+001             290.164          4.000e+001     
 150.000           0.000          -3.490e+001         -3.791e+001              91.023         -3.791e+001             271.020          4.000e+001     
 151.000           0.000          -3.596e+001         -3.897e+001              63.499         -3.897e+001             243.497          4.000e+001     
 152.000           0.000          -3.631e+001         -3.932e+001              27.293         -3.932e+001             207.298          4.000e+001     
 153.000           0.000          -3.514e+001         -3.815e+001             351.202         -3.815e+001             171.214          4.000e+001     
 154.000           0.000          -3.344e+001         -3.645e+001             322.417         -3.645e+001             142.428          4.000e+001     
 155.000           0.000          -3.211e+001         -3.512e+001             298.823         -3.512e+001             118.832          4.000e+001     
 156.000           0.000          -3.138e+001         -3.439e+001             276.711         -3.439e+001              96.718          4.000e+001     
 157.000           0.000          -3.117e+001         -3.418e+001             253.117         -3.418e+001              73.123          4.000e+001     
 158.000           0.000          -3.113e+001         -3.414e+001             225.759         -3.414e+001              45.765          4.000e+001     
 159.000           0.000          -3.069e+001         -3.370e+001             194.350         -3.370e+001              14.358          4.000e+001     
 160.000           0.000          -2.938e+001         -3.239e+001             162.496         -3.239e+001             342.503          4.000e+001     
 161.000           0.000          -2.746e+001         -3.047e+001             134.467         -3.047e+001             314.473          4.000e+001     
 162.000           0.000          -2.545e+001         -2.846e+001             110.999         -2.846e+001             291.003          4.000e+001     
 163.000           0.000          -2.364e+001         -2.665e+001              90.752         -2.665e+001             270.755          4.000e+001     
 164.000           0.000          -2.208e+001         -2.509e+001              72.338         -2.509e+001             252.341          4.000e+001     
 165.000           0.000          -2.077e+001         -2.378e+001              54.817         -2.378e+001             234.819          4.000e+001     
 166.000           0.000          -1.963e+001         -2.264e+001              37.607         -2.264e+001             217.609          4.000e+001     
 167.000           0.000          -1.859e+001         -2.160e+001              20.425         -2.160e+001             200.428          4.000e+001     
 168.000           0.000          -1.757e+001         -2.058e+001               3.269         -2.058e+001             183.271          4.000e+001     
 169.000           0.000          -1.648e+001         -1.950e+001             346.426         -1.950e+001             166.428          4.000e+001     
 170.000           0.000          -1.532e+001         -1.833e+001             330.392         -1.833e+001             150.394          4.000e+001     
 171.000           0.000          -1.407e+001         -1.708e+001             315.696         -1.708e+001             135.697          4.000e+001     
 172.000           0.000          -1.280e+001         -1.581e+001             302.726         -1.581e+001             122.727          4.000e+001     
 173.000           0.000          -1.156e+001         -1.457e+001             291.648         -1.457e+001             111.648          4.000e+001     
 174.000           0.000          -1.041e+001         -1.342e+001             282.440         -1.342e+001             102.440          4.000e+001     
 175.000           0.000          -9.401e+000         -1.241e+001             274.980         -1.241e+001              94.981          4.000e+001     
 176.000           0.000          -8.553e+000         -1.156e+001             269.120         -1.156e+001              89.121          4.000e+001     
 177.000           0.000          -7.883e+000         -1.089e+001             264.716         -1.089e+001              84.716          4.000e+001     
 178.000           0.000          -7.400e+000         -1.041e+001             261.651         -1.041e+001              81.651          4.000e+001     
 179.000           0.000          -7.109e+000         -1.012e+001             259.845         -1.012e+001              79.845          4.000e+001     
 180.000           0.000          -7.012e+000         -1.002e+001             259.248         -1.002e+001              79.248          4.000e+001     
